Time [d]	Moisture mass integral [kg/m2]	T_left [C]	RH_left [%]	pv_left [Pa]	T_right [C]	RH_right [%]	pv_right [Pa]
0	0.143799	18	80	1650.23	18	80	1650.23
0.00694444	0.14056	18.115	80.1668	1665.67	21.7197	73.6032	1912.21
0.0138889	0.137242	18.2772	80.4754	1689.22	22.4071	69.8167	1891.47
0.0208333	0.134312	18.4006	80.7079	1707.26	22.7596	67.4873	1867.92
0.0277778	0.131754	18.4949	80.7925	1719.19	22.9865	65.8742	1848.52
0.0347222	0.129388	18.5766	80.7887	1727.92	23.1674	64.5413	1831.04
0.0416667	0.12731	18.6454	80.6695	1732.83	23.3342	63.1987	1811.11
0.0486111	0.125499	18.7029	80.4317	1733.94	23.4549	62.2776	1797.76
0.0555556	0.12387	18.7486	80.1107	1731.97	23.5411	61.6331	1788.43
0.0625	0.122339	18.786	79.7321	1727.83	23.61	61.1178	1780.85
0.0694444	0.120905	18.8139	79.301	1721.48	23.664	60.7078	1774.68
0.0763889	0.119572	18.8294	78.829	1712.89	23.7055	60.3777	1769.44
0.0833333	0.118335	18.8323	78.334	1702.45	23.7401	60.0797	1764.37
0.0902778	0.117155	18.8279	77.8179	1690.76	23.7711	59.799	1759.41
0.0972222	0.116071	18.8122	77.3005	1677.87	23.802	59.4906	1753.59
0.104167	0.115086	18.7858	76.7948	1664.15	23.8297	59.2002	1747.95
0.111111	0.114167	18.752	76.3017	1649.98	23.8534	58.9387	1742.71
0.118056	0.113329	18.7088	75.8317	1635.39	23.8717	58.7126	1737.93
0.125	0.112569	18.6563	75.3881	1620.48	23.8846	58.5198	1733.57
0.131944	0.111856	18.5979	74.9614	1605.43	23.8942	58.3479	1729.47
0.138889	0.111201	18.5327	74.5619	1590.37	23.8999	58.1991	1725.66
0.145833	0.110605	18.4604	74.1906	1575.29	23.9019	58.0731	1722.13
0.152778	0.110066	18.3815	73.8494	1560.31	23.9004	57.968	1718.85
0.159722	0.109563	18.2986	73.5172	1545.23	23.8966	57.8765	1715.75
0.166667	0.109113	18.2102	73.2194	1530.45	23.8901	57.7996	1712.8
0.173611	0.108696	18.1185	72.9413	1515.88	23.882	57.7317	1709.96
0.180556	0.108321	18.0228	72.6922	1501.64	23.872	57.676	1707.28
0.1875	0.107985	17.924	72.4684	1487.74	23.8605	57.6277	1704.67
0.194444	0.107686	17.8224	72.2728	1474.26	23.848	57.583	1702.07
0.201389	0.107422	17.7184	72.1051	1461.23	23.8347	57.544	1699.55
0.208333	0.107195	17.6123	71.9642	1448.64	23.8201	57.5142	1697.19
0.215278	0.106996	17.5046	71.8416	1436.38	23.8044	57.4927	1694.95
0.222222	0.106826	17.3956	71.7369	1424.44	23.7875	57.4807	1692.88
0.229167	0.106686	17.2853	71.6497	1412.82	23.7693	57.4789	1690.97
0.236111	0.106571	17.1742	71.5761	1401.48	23.75	57.4854	1689.19
0.243056	0.106482	17.0623	71.5177	1390.44	23.7296	57.5009	1687.57
0.25	0.106409	16.9499	71.4687	1379.63	23.7084	57.522	1686.05
0.256944	0.10636	16.8373	71.4324	1369.11	23.6864	57.5507	1684.65
0.263889	0.106327	16.7245	71.405	1358.81	23.6638	57.5846	1683.35
0.270833	0.106309	16.6117	71.3864	1348.75	23.6406	57.6236	1682.14
0.277778	0.106307	16.4991	71.3767	1338.94	23.6168	57.6677	1681.02
0.284722	0.106322	16.3867	71.3757	1329.37	23.5926	57.7165	1679.99
0.291667	0.106349	16.2747	71.3821	1320.03	23.568	57.7693	1679.03
0.298611	0.106388	16.1631	71.3953	1310.91	23.5431	57.8257	1678.15
0.305556	0.106439	16.0521	71.4146	1302.01	23.5179	57.8854	1677.34
0.3125	0.106499	15.9418	71.4397	1293.31	23.4926	57.9481	1676.59
0.319444	0.106569	15.8322	71.4698	1284.82	23.467	58.0135	1675.9
0.326389	0.106648	15.7233	71.5049	1276.52	23.4414	58.0814	1675.26
0.333333	0.106734	15.6153	71.544	1268.41	23.4156	58.1515	1674.68
0.340278	0.106828	15.5082	71.5868	1260.49	23.3898	58.2239	1674.15
0.347222	0.106928	15.4019	71.6326	1252.72	23.3639	58.2979	1673.66
0.354167	0.107033	15.2966	71.682	1245.13	23.338	58.3738	1673.23
0.361111	0.107144	15.1923	71.7339	1237.71	23.3121	58.4512	1672.83
0.368056	0.10726	15.0892	71.7887	1230.47	23.2863	58.5302	1672.48
0.375	0.10738	14.9872	71.8455	1223.38	23.2605	58.6105	1672.17
0.381944	0.107503	14.8862	71.9039	1216.43	23.2348	58.6919	1671.89
0.388889	0.107629	14.7863	71.9636	1209.62	23.2092	58.7742	1671.65
0.395833	0.107758	14.6875	72.0244	1202.95	23.1837	58.8575	1671.44
0.402778	0.107888	14.5898	72.0861	1196.4	23.1583	58.9416	1671.26
0.409722	0.108021	14.4932	72.1484	1189.98	23.133	59.0265	1671.11
0.416667	0.108154	14.3977	72.2111	1183.68	23.1078	59.1119	1670.98
0.423611	0.108288	14.3033	72.274	1177.5	23.0828	59.1979	1670.88
0.430556	0.108423	14.21	72.3369	1171.42	23.058	59.2843	1670.81
0.4375	0.108558	14.1178	72.3987	1165.44	23.0333	59.3711	1670.75
0.444444	0.108693	14.0268	72.4602	1159.56	23.0088	59.4581	1670.72
0.451389	0.108828	13.9368	72.5232	1153.81	22.9845	59.5437	1670.68
0.458333	0.108964	13.848	72.5888	1148.2	22.9608	59.6267	1670.6
0.465278	0.109101	13.7603	72.6567	1142.74	22.9375	59.7074	1670.5
0.472222	0.109239	13.6736	72.7268	1137.41	22.9146	59.7868	1670.4
0.479167	0.109377	13.5881	72.7978	1132.2	22.892	59.8652	1670.3
0.486111	0.109517	13.5037	72.8703	1127.11	22.8696	59.943	1670.21
0.493056	0.109657	13.4203	72.944	1122.14	22.8476	60.0204	1670.14
0.5	0.109798	13.338	73.0183	1117.27	22.8257	60.0975	1670.07
0.506944	0.109938	13.2568	73.0932	1112.5	22.8041	60.1744	1670.02
0.513889	0.110079	13.1767	73.1683	1107.83	22.7827	60.2511	1669.98
0.520833	0.11022	13.0975	73.2435	1103.25	22.7615	60.3277	1669.96
0.527778	0.110361	13.0195	73.3193	1098.77	22.7406	60.4034	1669.93
0.534722	0.110502	12.9424	73.3946	1094.36	22.72	60.4781	1669.9
0.541667	0.110643	12.8664	73.4702	1090.05	22.6996	60.552	1669.88
0.548611	0.110784	12.7913	73.5462	1085.83	22.6795	60.6254	1669.86
0.555556	0.110925	12.7173	73.6221	1081.68	22.6596	60.6984	1669.86
0.5625	0.111065	12.6443	73.697	1077.61	22.6399	60.7711	1669.86
0.569444	0.111205	12.5722	73.7717	1073.61	22.6204	60.8435	1669.87
0.576389	0.111344	12.5011	73.8462	1069.69	22.6011	60.9155	1669.89
0.583333	0.111482	12.4309	73.9203	1065.83	22.5821	60.9872	1669.92
0.590278	0.11162	12.3617	73.9937	1062.05	22.5632	61.0586	1669.96
0.597222	0.111757	12.2934	74.066	1058.32	22.5445	61.1296	1670.01
0.604167	0.111892	12.226	74.1375	1054.66	22.5261	61.2002	1670.06
0.611111	0.112027	12.1595	74.2082	1051.05	22.5078	61.2703	1670.12
0.618056	0.11216	12.0939	74.2775	1047.5	22.4897	61.34	1670.19
0.625	0.112292	12.0293	74.3452	1043.99	22.4719	61.4092	1670.26
0.631944	0.112423	11.9654	74.4124	1040.55	22.4542	61.478	1670.34
0.638889	0.112552	11.9025	74.4788	1037.16	22.4368	61.5462	1670.42
0.645833	0.11268	11.8404	74.5445	1033.83	22.4196	61.6139	1670.51
0.652778	0.112806	11.7791	74.6083	1030.53	22.4025	61.681	1670.6
0.659722	0.112931	11.7187	74.6716	1027.3	22.3857	61.7477	1670.69
0.666667	0.113055	11.6591	74.7343	1024.12	22.369	61.8137	1670.78
0.673611	0.113176	11.6003	74.7961	1020.99	22.3526	61.8793	1670.88
0.680556	0.113296	11.5423	74.857	1017.9	22.3364	61.9442	1670.99
0.6875	0.113415	11.4851	74.9169	1014.87	22.3203	62.0085	1671.09
0.694444	0.113531	11.4287	74.976	1011.88	22.3045	62.0723	1671.2
0.701389	0.113646	11.373	75.034	1008.94	22.2888	62.1355	1671.31
0.708333	0.11376	11.3181	75.0911	1006.03	22.2734	62.1981	1671.42
0.715278	0.113871	11.264	75.1468	1003.17	22.2581	62.26	1671.53
0.722222	0.113981	11.2105	75.2012	1000.35	22.2431	62.3213	1671.64
0.729167	0.114089	11.1579	75.2547	997.564	22.2282	62.3819	1671.75
0.736111	0.114195	11.1059	75.3072	994.822	22.2135	62.4417	1671.86
0.743056	0.1143	11.0546	75.3586	992.118	22.199	62.5009	1671.97
0.75	0.114403	11.0041	75.4088	989.449	22.1847	62.5594	1672.08
0.756944	0.114504	10.9542	75.458	986.818	22.1706	62.6173	1672.19
0.763889	0.114604	10.9051	75.5053	984.213	22.1567	62.6744	1672.29
0.770833	0.114702	10.8566	75.5517	981.646	22.143	62.7309	1672.4
0.777778	0.114798	10.8088	75.5973	979.117	22.1295	62.7867	1672.51
0.784722	0.114893	10.7616	75.6422	976.625	22.1161	62.8419	1672.62
0.791667	0.114986	10.7151	75.6862	974.171	22.1029	62.8964	1672.72
0.798611	0.115078	10.6692	75.7289	971.743	22.0899	62.9502	1672.83
0.805556	0.115168	10.6239	75.7709	969.354	22.0771	63.0032	1672.93
0.8125	0.115257	10.5793	75.8123	967.001	22.0645	63.0544	1673.01
0.819444	0.115346	10.5353	75.8534	964.69	22.0525	63.1009	1673.01
0.826389	0.115435	10.4919	75.8946	962.424	22.0409	63.1453	1673
0.833333	0.115524	10.4491	75.936	960.202	22.0294	63.1886	1672.98
0.840278	0.115613	10.4069	75.9775	958.024	22.0182	63.2314	1672.97
0.847222	0.115703	10.3653	76.0189	955.887	22.0071	63.2738	1672.96
0.854167	0.115793	10.3243	76.0598	953.784	21.9961	63.3159	1672.95
0.861111	0.115882	10.2838	76.1002	951.714	21.9853	63.3576	1672.95
0.868056	0.115972	10.244	76.1407	949.684	21.9746	63.399	1672.95
0.875	0.116061	10.2046	76.1812	947.692	21.964	63.4401	1672.95
0.881944	0.116151	10.1658	76.2217	945.738	21.9536	63.4809	1672.96
0.888889	0.11624	10.1275	76.262	943.818	21.9432	63.5214	1672.97
0.895833	0.116328	10.0898	76.3018	941.928	21.933	63.5616	1672.99
0.902778	0.116417	10.0526	76.3417	940.074	21.9229	63.6016	1673.01
0.909722	0.116505	10.0159	76.3815	938.255	21.913	63.6412	1673.03
0.916667	0.116593	9.97966	76.4212	936.468	21.9031	63.6805	1673.06
0.923611	0.11668	9.94395	76.4607	934.712	21.8933	63.7195	1673.09
0.930556	0.116766	9.90873	76.5	932.987	21.8837	63.7582	1673.12
0.9375	0.116853	9.87399	76.5391	931.291	21.8742	63.7965	1673.15
0.944444	0.116938	9.83973	76.5779	929.624	21.8648	63.8346	1673.19
0.951389	0.117023	9.80593	76.6164	927.986	21.8555	63.8724	1673.23
0.958333	0.117107	9.7726	76.6541	926.368	21.8463	63.9097	1673.27
0.965278	0.117191	9.73974	76.6915	924.777	21.8374	63.9457	1673.3
0.972222	0.117275	9.70732	76.7287	923.214	21.8285	63.9809	1673.32
0.979167	0.117358	9.67535	76.7658	921.679	21.8199	64.0156	1673.34
0.986111	0.117441	9.64383	76.8026	920.17	21.8113	64.0498	1673.35
0.993056	0.117524	9.61273	76.8386	918.68	21.8028	64.0837	1673.38
1	0.117606	9.58207	76.8747	917.219	21.7945	64.1173	1673.4
1.00694	0.117688	9.55183	76.9106	915.783	21.7862	64.1507	1673.43
1.01389	0.117769	9.522	76.9463	914.373	21.7781	64.1836	1673.45
1.02083	0.11785	9.49258	76.9819	912.987	21.7701	64.2162	1673.48
1.02778	0.117931	9.46356	77.0172	911.624	21.7621	64.2486	1673.51
1.03472	0.118011	9.43495	77.0522	910.284	21.7543	64.2807	1673.54
1.04167	0.11809	9.40672	77.087	908.967	21.7465	64.3126	1673.58
1.04861	0.118169	9.37889	77.1216	907.672	21.7388	64.3442	1673.62
1.05556	0.118247	9.35143	77.1558	906.397	21.7312	64.3755	1673.66
1.0625	0.118325	9.32435	77.1898	905.144	21.7238	64.4065	1673.7
1.06944	0.118402	9.29764	77.2229	903.904	21.7164	64.4372	1673.74
1.07639	0.118478	9.2713	77.2555	902.682	21.7091	64.4676	1673.78
1.08333	0.118554	9.24532	77.2876	901.478	21.7018	64.4977	1673.82
1.09028	0.118629	9.2197	77.3195	900.293	21.6947	64.5274	1673.87
1.09722	0.118704	9.19443	77.351	899.127	21.6877	64.5568	1673.91
1.10417	0.118777	9.1695	77.3817	897.973	21.6808	64.5858	1673.95
1.11111	0.118851	9.14492	77.4124	896.841	21.6739	64.6145	1674
1.11806	0.118923	9.12067	77.4429	895.727	21.6672	64.643	1674.04
1.125	0.118995	9.09676	77.4731	894.632	21.6605	64.6711	1674.08
1.13194	0.119066	9.07317	77.503	893.554	21.6539	64.6989	1674.13
1.13889	0.119137	9.04991	77.5327	892.494	21.6474	64.7264	1674.18
1.14583	0.119207	9.02697	77.562	891.45	21.641	64.7536	1674.22
1.15278	0.119276	9.00434	77.5911	890.422	21.6346	64.7806	1674.27
1.15972	0.119344	8.98202	77.6199	889.41	21.6284	64.8072	1674.32
1.16667	0.119412	8.96	77.6483	888.414	21.6222	64.8336	1674.36
1.17361	0.119479	8.93829	77.6765	887.434	21.6161	64.8596	1674.41
1.18056	0.119545	8.91688	77.7043	886.468	21.6101	64.8854	1674.46
1.1875	0.11961	8.89576	77.7318	885.517	21.6041	64.9109	1674.51
1.19444	0.119675	8.87493	77.7587	884.577	21.5983	64.9361	1674.56
1.20139	0.119739	8.85438	77.7851	883.649	21.5925	64.961	1674.61
1.20833	0.119803	8.83412	77.8113	882.736	21.5868	64.9856	1674.65
1.21528	0.119865	8.81413	77.8371	881.836	21.5811	65.0099	1674.7
1.22222	0.119927	8.79442	77.8624	880.948	21.5756	65.0339	1674.75
1.22917	0.119989	8.77498	77.8874	880.072	21.5701	65.0576	1674.8
1.23611	0.120049	8.75581	77.9117	879.205	21.5646	65.0809	1674.84
1.24306	0.120109	8.73689	77.9358	878.352	21.5593	65.104	1674.89
1.25	0.120169	8.71824	77.9597	877.513	21.554	65.1268	1674.94
1.25694	0.120227	8.69985	77.9833	876.687	21.5488	65.1494	1674.98
1.26389	0.120285	8.6817	78.0067	875.873	21.5437	65.1716	1675.03
1.27083	0.120343	8.66381	78.0298	875.072	21.5386	65.1936	1675.07
1.27778	0.120399	8.64616	78.0527	874.283	21.5336	65.2153	1675.12
1.28472	0.120455	8.62875	78.0753	873.505	21.5287	65.2368	1675.16
1.29167	0.120511	8.61158	78.0976	872.739	21.5238	65.258	1675.21
1.29861	0.120565	8.59465	78.1197	871.985	21.519	65.279	1675.25
1.30556	0.120619	8.57795	78.1414	871.241	21.5143	65.2997	1675.3
1.3125	0.120673	8.56148	78.1629	870.509	21.5096	65.3201	1675.34
1.31944	0.120726	8.54523	78.1841	869.786	21.505	65.3403	1675.39
1.32639	0.120778	8.52921	78.205	869.074	21.5004	65.3602	1675.43
1.33333	0.120829	8.51341	78.2256	868.372	21.4959	65.3798	1675.47
1.34028	0.12088	8.49782	78.2459	867.68	21.4915	65.3993	1675.52
1.34722	0.120931	8.48245	78.2659	866.998	21.4871	65.4185	1675.56
1.35417	0.12098	8.46729	78.2857	866.325	21.4828	65.4374	1675.6
1.36111	0.121029	8.45233	78.3048	865.659	21.4785	65.4562	1675.64
1.36806	0.121078	8.43759	78.3237	865.002	21.4743	65.4747	1675.69
1.375	0.121126	8.42304	78.3424	864.356	21.4702	65.4929	1675.73
1.38194	0.121173	8.4087	78.3609	863.718	21.4661	65.511	1675.77
1.38889	0.12122	8.39455	78.3792	863.091	21.462	65.5288	1675.81
1.39583	0.121266	8.38059	78.3972	862.472	21.4581	65.5463	1675.85
1.40278	0.121311	8.36683	78.415	861.862	21.4541	65.5637	1675.89
1.40972	0.121356	8.35325	78.4321	861.256	21.4503	65.5808	1675.93
1.41667	0.121401	8.33987	78.449	860.659	21.4464	65.5977	1675.97
1.42361	0.121445	8.32666	78.4658	860.072	21.4427	65.6143	1676.01
1.43056	0.121488	8.31364	78.4823	859.493	21.4389	65.6307	1676.04
1.4375	0.121531	8.30079	78.4987	858.922	21.4353	65.6469	1676.08
1.44444	0.121573	8.28813	78.5148	858.36	21.4317	65.6629	1676.12
1.45139	0.121615	8.27563	78.5308	857.806	21.4281	65.6787	1676.15
1.45833	0.121657	8.26331	78.5466	857.261	21.4246	65.6943	1676.19
1.46528	0.121697	8.25116	78.5621	856.723	21.4211	65.7097	1676.23
1.47222	0.121738	8.23917	78.5775	856.193	21.4177	65.7249	1676.26
1.47917	0.121777	8.22735	78.5927	855.67	21.4143	65.7399	1676.3
1.48611	0.121817	8.21569	78.6076	855.156	21.4109	65.7548	1676.33
1.49306	0.121856	8.20419	78.6224	854.648	21.4077	65.7694	1676.37
1.5	0.121894	8.19284	78.637	854.148	21.4044	65.7839	1676.4
1.50694	0.121932	8.18166	78.6514	853.655	21.4012	65.7981	1676.44
1.51389	0.121969	8.17062	78.6656	853.169	21.398	65.8122	1676.47
1.52083	0.122006	8.15974	78.6796	852.69	21.3949	65.8262	1676.5
1.52778	0.122042	8.14901	78.6935	852.218	21.3918	65.8399	1676.54
1.53472	0.122078	8.13842	78.7071	851.752	21.3888	65.8535	1676.57
1.54167	0.122114	8.12798	78.7206	851.293	21.3858	65.8669	1676.6
1.54861	0.122148	8.11768	78.7339	850.841	21.3828	65.8801	1676.64
1.55556	0.122183	8.10753	78.747	850.395	21.3799	65.8931	1676.67
1.5625	0.122217	8.09751	78.7599	849.955	21.3771	65.9059	1676.7
1.56944	0.122251	8.08763	78.7727	849.522	21.3742	65.9186	1676.73
1.57639	0.122284	8.07789	78.7852	849.094	21.3714	65.9311	1676.76
1.58333	0.122317	8.06828	78.7976	848.673	21.3687	65.9434	1676.79
1.59028	0.122349	8.0588	78.8098	848.257	21.3659	65.9557	1676.82
1.59722	0.122381	8.04945	78.8217	847.845	21.3633	65.9677	1676.85
1.60417	0.122413	8.04023	78.8334	847.439	21.3606	65.9796	1676.88
1.61111	0.122444	8.03114	78.8449	847.038	21.358	65.9913	1676.91
1.61806	0.122474	8.02217	78.8562	846.643	21.3554	66.0028	1676.94
1.625	0.122505	8.01332	78.8673	846.253	21.3529	66.0141	1676.96
1.63194	0.122535	8.0046	78.8783	845.868	21.3504	66.0253	1676.99
1.63889	0.122564	7.996	78.8892	845.489	21.3479	66.0364	1677.02
1.64583	0.122594	7.98751	78.8999	845.115	21.3455	66.0473	1677.05
1.65278	0.122622	7.97914	78.9104	844.747	21.3431	66.0581	1677.07
1.65972	0.122651	7.97089	78.9208	844.384	21.3407	66.0687	1677.1
1.66667	0.122679	7.96275	78.931	844.025	21.3383	66.0792	1677.12
1.67361	0.122707	7.95472	78.941	843.67	21.336	66.0896	1677.15
1.68056	0.122734	7.9468	78.9508	843.32	21.3338	66.0999	1677.18
1.6875	0.122761	7.93899	78.9606	842.976	21.3315	66.11	1677.2
1.69444	0.122788	7.93129	78.9702	842.637	21.3293	66.12	1677.23
1.70139	0.122815	7.92369	78.9798	842.302	21.3271	66.1298	1677.25
1.70833	0.122841	7.91619	78.9891	841.972	21.3249	66.1395	1677.28
1.71528	0.122866	7.9088	78.9983	841.646	21.3228	66.149	1677.3
1.72222	0.122892	7.90152	79.0073	841.324	21.3207	66.1585	1677.32
1.72917	0.122917	7.89433	79.0162	841.007	21.3187	66.1678	1677.35
1.73611	0.122942	7.88724	79.025	840.695	21.3166	66.1769	1677.37
1.74306	0.122966	7.88024	79.0337	840.386	21.3146	66.186	1677.39
1.75	0.12299	7.87335	79.0423	840.083	21.3126	66.195	1677.41
1.75694	0.123014	7.86655	79.0508	839.783	21.3107	66.2038	1677.44
1.76389	0.123038	7.85984	79.0591	839.488	21.3087	66.2125	1677.46
1.77083	0.123061	7.85322	79.0674	839.197	21.3068	66.2211	1677.48
1.77778	0.123084	7.84669	79.0755	838.91	21.3049	66.2296	1677.5
1.78472	0.123106	7.84026	79.0835	838.628	21.3031	66.238	1677.52
1.79167	0.123129	7.83391	79.0915	838.349	21.3013	66.2463	1677.54
1.79861	0.123151	7.82765	79.0993	838.074	21.2994	66.2545	1677.56
1.80556	0.123172	7.82147	79.107	837.803	21.2977	66.2625	1677.59
1.8125	0.123194	7.81538	79.1146	837.536	21.2959	66.2705	1677.61
1.81944	0.123215	7.80938	79.1221	837.273	21.2942	66.2783	1677.63
1.82639	0.123236	7.80345	79.1296	837.013	21.2925	66.2861	1677.65
1.83333	0.123257	7.79761	79.1369	836.757	21.2908	66.2937	1677.67
1.84028	0.123277	7.79184	79.1441	836.504	21.2891	66.3013	1677.69
1.84722	0.123297	7.78616	79.1512	836.255	21.2875	66.3087	1677.71
1.85417	0.123317	7.78055	79.1583	836.01	21.2858	66.3161	1677.73
1.86111	0.123337	7.77502	79.1652	835.768	21.2842	66.3233	1677.74
1.86806	0.123356	7.76957	79.172	835.529	21.2827	66.3305	1677.76
1.875	0.123375	7.76419	79.1788	835.294	21.2811	66.3376	1677.78
1.88194	0.123394	7.75889	79.1855	835.062	21.2797	66.3436	1677.78
1.88889	0.123413	7.75366	79.1921	834.834	21.2782	66.3493	1677.78
1.89583	0.123432	7.74851	79.1986	834.61	21.2769	66.355	1677.79
1.90278	0.123451	7.74342	79.2052	834.39	21.2755	66.3607	1677.79
1.90972	0.12347	7.73841	79.2116	834.173	21.2741	66.3664	1677.79
1.91667	0.123489	7.73347	79.2181	833.96	21.2728	66.3721	1677.8
1.92361	0.123508	7.7286	79.2246	833.75	21.2714	66.3777	1677.8
1.93056	0.123527	7.72379	79.231	833.544	21.2701	66.3833	1677.81
1.9375	0.123546	7.71905	79.2374	833.342	21.2688	66.3889	1677.81
1.94444	0.123564	7.71438	79.2437	833.143	21.2675	66.3944	1677.82
1.95139	0.123583	7.70976	79.2501	832.948	21.2663	66.3998	1677.83
1.95833	0.123601	7.70522	79.2564	832.756	21.265	66.4053	1677.83
1.96528	0.12362	7.70073	79.2627	832.567	21.2638	66.4106	1677.84
1.97222	0.123638	7.69631	79.269	832.381	21.2625	66.416	1677.85
1.97917	0.123656	7.69194	79.2752	832.199	21.2613	66.4213	1677.86
1.98611	0.123674	7.68764	79.2814	832.019	21.2601	66.4265	1677.87
1.99306	0.123692	7.68339	79.2875	831.843	21.2589	66.4317	1677.88
2	0.12371	7.67921	79.2937	831.67	21.2577	66.4368	1677.89
2.00694	0.123728	7.67508	79.2997	831.499	21.2566	66.4419	1677.89
2.01389	0.123745	7.671	79.3058	831.331	21.2554	66.447	1677.9
2.02083	0.123763	7.66699	79.3118	831.166	21.2543	66.4519	1677.91
2.02778	0.12378	7.66302	79.3178	831.004	21.2532	66.4569	1677.92
2.03472	0.123797	7.65911	79.3237	830.844	21.2521	66.4618	1677.93
2.04167	0.123814	7.65526	79.3296	830.687	21.251	66.4666	1677.94
2.04861	0.123831	7.65146	79.3353	830.532	21.2499	66.4714	1677.95
2.05556	0.123848	7.64771	79.341	830.379	21.2489	66.4762	1677.96
2.0625	0.123865	7.64401	79.3466	830.228	21.2478	66.4808	1677.97
2.06944	0.123881	7.64036	79.3522	830.08	21.2468	66.4855	1677.98
2.07639	0.123897	7.63676	79.3578	829.934	21.2457	66.4901	1677.99
2.08333	0.123914	7.63321	79.3633	829.791	21.2447	66.4946	1678
2.09028	0.12393	7.62971	79.3688	829.65	21.2437	66.4991	1678.01
2.09722	0.123946	7.62626	79.3743	829.512	21.2427	66.5035	1678.02
2.10417	0.123962	7.62285	79.3797	829.375	21.2418	66.5079	1678.03
2.11111	0.123977	7.61949	79.385	829.241	21.2408	66.5122	1678.05
2.11806	0.123993	7.61618	79.3904	829.109	21.2399	66.5165	1678.06
2.125	0.124008	7.61291	79.3956	828.979	21.2389	66.5208	1678.07
2.13194	0.124023	7.60969	79.4008	828.851	21.238	66.525	1678.08
2.13889	0.124038	7.60651	79.406	828.725	21.2371	66.5291	1678.09
2.14583	0.124053	7.60337	79.4111	828.601	21.2362	66.5332	1678.1
2.15278	0.124068	7.60028	79.4162	828.479	21.2353	66.5373	1678.11
2.15972	0.124083	7.59723	79.4213	828.359	21.2344	66.5413	1678.12
2.16667	0.124097	7.59422	79.4262	828.241	21.2335	66.5452	1678.13
2.17361	0.124112	7.59125	79.4312	828.124	21.2327	66.5492	1678.14
2.18056	0.124126	7.58832	79.4361	828.009	21.2318	66.553	1678.15
2.1875	0.12414	7.58544	79.4408	827.896	21.231	66.5569	1678.16
2.19444	0.124154	7.58259	79.4455	827.784	21.2302	66.5607	1678.17
2.20139	0.124168	7.57978	79.4502	827.674	21.2294	66.5644	1678.18
2.20833	0.124181	7.57701	79.4549	827.566	21.2286	66.5681	1678.19
2.21528	0.124195	7.57428	79.4595	827.459	21.2278	66.5718	1678.2
2.22222	0.124208	7.57158	79.4641	827.355	21.227	66.5754	1678.21
2.22917	0.124222	7.56892	79.4686	827.251	21.2262	66.5789	1678.22
2.23611	0.124235	7.5663	79.4731	827.15	21.2254	66.5824	1678.23
2.24306	0.124248	7.56371	79.4775	827.05	21.2247	66.5859	1678.24
2.25	0.12426	7.56116	79.4819	826.951	21.2239	66.5894	1678.25
2.25694	0.124273	7.55864	79.4863	826.854	21.2232	66.5928	1678.26
2.26389	0.124286	7.55616	79.4906	826.759	21.2225	66.5961	1678.27
2.27083	0.124298	7.55371	79.4948	826.665	21.2218	66.5994	1678.28
2.27778	0.12431	7.5513	79.499	826.572	21.2211	66.6027	1678.29
2.28472	0.124322	7.54891	79.5032	826.481	21.2204	66.606	1678.3
2.29167	0.124334	7.54656	79.5073	826.391	21.2197	66.6092	1678.31
2.29861	0.124346	7.54425	79.5114	826.303	21.219	66.6123	1678.32
2.30556	0.124358	7.54196	79.5154	826.215	21.2183	66.6155	1678.33
2.3125	0.12437	7.53971	79.5194	826.13	21.2177	66.6185	1678.34
2.31944	0.124381	7.53748	79.5233	826.045	21.217	66.6216	1678.35
2.32639	0.124393	7.53529	79.5272	825.962	21.2164	66.6246	1678.36
2.33333	0.124404	7.53312	79.531	825.879	21.2157	66.6276	1678.37
2.34028	0.124415	7.53099	79.5348	825.798	21.2151	66.6305	1678.38
2.34722	0.124426	7.52889	79.5385	825.718	21.2145	66.6334	1678.39
2.35417	0.124437	7.52681	79.5422	825.639	21.2139	66.6363	1678.4
2.36111	0.124447	7.52476	79.5458	825.561	21.2133	66.6391	1678.41
2.36806	0.124458	7.52274	79.5494	825.484	21.2127	66.6419	1678.42
2.375	0.124469	7.52075	79.553	825.409	21.2121	66.6446	1678.42
2.38194	0.124479	7.51878	79.5565	825.334	21.2115	66.6473	1678.43
2.38889	0.124489	7.51685	79.56	825.261	21.2109	66.65	1678.44
2.39583	0.124499	7.51493	79.5634	825.189	21.2104	66.6527	1678.45
2.40278	0.124509	7.51305	79.5668	825.118	21.2098	66.6553	1678.46
2.40972	0.124519	7.51119	79.5702	825.048	21.2093	66.6579	1678.47
2.41667	0.124529	7.50935	79.5735	824.979	21.2087	66.6604	1678.48
2.42361	0.124539	7.50755	79.5768	824.911	21.2082	66.663	1678.48
2.43056	0.124548	7.50576	79.58	824.844	21.2077	66.6654	1678.49
2.4375	0.124558	7.504	79.5832	824.778	21.2071	66.6679	1678.5
2.44444	0.124567	7.50226	79.5864	824.713	21.2066	66.6703	1678.51
2.45139	0.124576	7.50055	79.5895	824.649	21.2061	66.6727	1678.52
2.45833	0.124586	7.49886	79.5926	824.586	21.2056	66.6751	1678.53
2.46528	0.124595	7.4972	79.5957	824.523	21.2051	66.6775	1678.53
2.47222	0.124604	7.49555	79.5987	824.462	21.2046	66.6798	1678.54
2.47917	0.124612	7.49393	79.6017	824.402	21.2042	66.6821	1678.55
2.48611	0.124621	7.49233	79.6047	824.342	21.2037	66.6843	1678.56
2.49306	0.12463	7.49075	79.6076	824.284	21.2032	66.6865	1678.57
2.5	0.124638	7.4892	79.6105	824.226	21.2027	66.6887	1678.57
2.50694	0.124647	7.48766	79.6133	824.169	21.2023	66.6909	1678.58
2.51389	0.124655	7.48615	79.6162	824.113	21.2018	66.6931	1678.59
2.52083	0.124663	7.48466	79.619	824.058	21.2014	66.6952	1678.6
2.52778	0.124671	7.48318	79.6217	824.003	21.201	66.6973	1678.6
2.53472	0.124679	7.48173	79.6244	823.95	21.2005	66.6993	1678.61
2.54167	0.124687	7.4803	79.6271	823.897	21.2001	66.7014	1678.62
2.54861	0.124695	7.47889	79.6298	823.845	21.1997	66.7034	1678.62
2.55556	0.124703	7.47749	79.6324	823.793	21.1993	66.7054	1678.63
2.5625	0.12471	7.47612	79.635	823.743	21.1988	66.7073	1678.64
2.56944	0.124718	7.47476	79.6376	823.693	21.1984	66.7093	1678.65
2.57639	0.124725	7.47342	79.6401	823.644	21.198	66.7112	1678.65
2.58333	0.124733	7.4721	79.6426	823.595	21.1976	66.7131	1678.66
2.59028	0.12474	7.4708	79.6451	823.548	21.1973	66.7149	1678.67
2.59722	0.124747	7.46952	79.6475	823.501	21.1969	66.7168	1678.67
2.60417	0.124754	7.46825	79.6499	823.454	21.1965	66.7186	1678.68
2.61111	0.124761	7.467	79.6523	823.409	21.1961	66.7204	1678.69
2.61806	0.124768	7.46577	79.6547	823.364	21.1957	66.7222	1678.69
2.625	0.124775	7.46456	79.657	823.319	21.1954	66.7239	1678.7
2.63194	0.124782	7.46336	79.6593	823.276	21.195	66.7256	1678.71
2.63889	0.124788	7.46218	79.6616	823.233	21.1947	66.7273	1678.71
2.64583	0.124795	7.46101	79.6638	823.19	21.1943	66.729	1678.72
2.65278	0.124801	7.45986	79.666	823.148	21.194	66.7307	1678.72
2.65972	0.124808	7.45872	79.6682	823.107	21.1936	66.7323	1678.73
2.66667	0.124814	7.45761	79.6704	823.066	21.1933	66.7339	1678.74
2.67361	0.12482	7.4565	79.6725	823.026	21.193	66.7355	1678.74
2.68056	0.124827	7.45541	79.6746	822.987	21.1926	66.7371	1678.75
2.6875	0.124833	7.45434	79.6767	822.948	21.1923	66.7387	1678.75
2.69444	0.124839	7.45328	79.6788	822.91	21.192	66.7402	1678.76
2.70139	0.124845	7.45223	79.6808	822.872	21.1917	66.7417	1678.77
2.70833	0.124851	7.4512	79.6828	822.835	21.1914	66.7432	1678.77
2.71528	0.124856	7.45019	79.6848	822.798	21.1911	66.7447	1678.78
2.72222	0.124862	7.44918	79.6868	822.762	21.1908	66.7461	1678.78
2.72917	0.124868	7.4482	79.6887	822.726	21.1905	66.7476	1678.79
2.73611	0.124873	7.44722	79.6906	822.691	21.1902	66.749	1678.79
2.74306	0.124879	7.44626	79.6925	822.656	21.1899	66.7504	1678.8
2.75	0.124884	7.44531	79.6944	822.622	21.1896	66.7518	1678.8
2.75694	0.12489	7.44437	79.6962	822.588	21.1893	66.7532	1678.81
2.76389	0.124895	7.44345	79.698	822.555	21.189	66.7545	1678.81
2.77083	0.1249	7.44254	79.6998	822.522	21.1888	66.7558	1678.82
2.77778	0.124906	7.44164	79.7016	822.49	21.1885	66.7572	1678.83
2.78472	0.124911	7.44075	79.7033	822.458	21.1882	66.7585	1678.83
2.79167	0.124916	7.43988	79.7051	822.427	21.188	66.7597	1678.84
2.79861	0.124921	7.43902	79.7068	822.396	21.1877	66.761	1678.84
2.80556	0.124926	7.43817	79.7085	822.366	21.1874	66.7623	1678.85
2.8125	0.124931	7.43733	79.7101	822.336	21.1872	66.7635	1678.85
2.81944	0.124935	7.4365	79.7118	822.306	21.1869	66.7647	1678.85
2.82639	0.12494	7.43568	79.7134	822.277	21.1867	66.7659	1678.86
2.83333	0.124945	7.43488	79.715	822.248	21.1864	66.7671	1678.86
2.84028	0.124949	7.43408	79.7166	822.22	21.1862	66.7683	1678.87
2.84722	0.124954	7.4333	79.7181	822.192	21.186	66.7694	1678.87
2.85417	0.124958	7.43253	79.7197	822.165	21.1857	66.7705	1678.88
2.86111	0.124963	7.43177	79.7212	822.138	21.1855	66.7717	1678.88
2.86806	0.124967	7.43101	79.7227	822.111	21.1853	66.7728	1678.89
2.875	0.124972	7.43027	79.7242	822.085	21.185	66.7739	1678.89
2.88194	0.124976	7.42954	79.7257	822.059	21.1848	66.775	1678.9
2.88889	0.12498	7.42882	79.7271	822.033	21.1846	66.776	1678.9
2.89583	0.124984	7.42811	79.7286	822.008	21.1844	66.7771	1678.9
2.90278	0.124989	7.42741	79.73	821.983	21.1842	66.7781	1678.91
2.90972	0.124993	7.42671	79.7314	821.959	21.184	66.7791	1678.91
2.91667	0.124997	7.42603	79.7328	821.934	21.1838	66.7802	1678.92
2.92361	0.125001	7.42536	79.7341	821.911	21.1836	66.7812	1678.92
2.93056	0.125005	7.42469	79.7355	821.887	21.1833	66.7821	1678.92
2.9375	0.125008	7.42404	79.7368	821.864	21.1831	66.7831	1678.93
2.94444	0.125012	7.42339	79.7381	821.841	21.183	66.7841	1678.93
2.95139	0.125016	7.42275	79.7394	821.819	21.1828	66.785	1678.94
2.95833	0.12502	7.42212	79.7407	821.797	21.1826	66.786	1678.94
2.96528	0.125023	7.4215	79.742	821.775	21.1824	66.7869	1678.94
2.97222	0.125027	7.42089	79.7432	821.753	21.1822	66.7878	1678.95
2.97917	0.125031	7.42029	79.7445	821.732	21.182	66.7887	1678.95
2.98611	0.125034	7.41969	79.7457	821.711	21.1818	66.7896	1678.95
2.99306	0.125038	7.4191	79.7469	821.691	21.1816	66.7905	1678.96
3	0.125041	7.41852	79.7481	821.67	21.1815	66.7913	1678.96
3.00694	0.125045	7.41795	79.7493	821.65	21.1813	66.7922	1678.97
3.01389	0.125048	7.41739	79.7504	821.631	21.1811	66.793	1678.97
3.02083	0.125051	7.41683	79.7516	821.611	21.181	66.7939	1678.97
3.02778	0.125055	7.41628	79.7527	821.592	21.1808	66.7947	1678.98
3.03472	0.125058	7.41574	79.7538	821.573	21.1806	66.7955	1678.98
3.04167	0.125061	7.41521	79.7549	821.554	21.1805	66.7963	1678.98
3.04861	0.125064	7.41468	79.756	821.536	21.1803	66.7971	1678.99
3.05556	0.125067	7.41416	79.7571	821.518	21.1801	66.7979	1678.99
3.0625	0.125071	7.41365	79.7582	821.5	21.18	66.7986	1678.99
3.06944	0.125074	7.41314	79.7592	821.483	21.1798	66.7994	1678.99
3.07639	0.125077	7.41265	79.7603	821.465	21.1797	66.8002	1679
3.08333	0.12508	7.41215	79.7613	821.448	21.1795	66.8009	1679
3.09028	0.125083	7.41167	79.7623	821.431	21.1794	66.8016	1679
3.09722	0.125085	7.41119	79.7633	821.415	21.1792	66.8023	1679.01
3.10417	0.125088	7.41072	79.7643	821.399	21.1791	66.8031	1679.01
3.11111	0.125091	7.41025	79.7653	821.382	21.1789	66.8038	1679.01
3.11806	0.125094	7.40979	79.7662	821.367	21.1788	66.8045	1679.02
3.125	0.125097	7.40934	79.7672	821.351	21.1787	66.8051	1679.02
3.13194	0.125099	7.40889	79.7681	821.335	21.1785	66.8058	1679.02
3.13889	0.125102	7.40845	79.769	821.32	21.1784	66.8065	1679.02
3.14583	0.125105	7.40802	79.77	821.305	21.1783	66.8071	1679.03
3.15278	0.125107	7.40759	79.7709	821.291	21.1781	66.8078	1679.03
3.15972	0.12511	7.40717	79.7718	821.276	21.178	66.8084	1679.03
3.16667	0.125112	7.40675	79.7727	821.262	21.1779	66.8091	1679.04
3.17361	0.125115	7.40634	79.7735	821.248	21.1777	66.8097	1679.04
3.18056	0.125118	7.40593	79.7744	821.234	21.1776	66.8103	1679.04
3.1875	0.12512	7.40553	79.7752	821.22	21.1775	66.8109	1679.04
3.19444	0.125122	7.40514	79.7761	821.206	21.1774	66.8115	1679.05
3.20139	0.125125	7.40475	79.7769	821.193	21.1773	66.8121	1679.05
3.20833	0.125127	7.40436	79.7777	821.18	21.1771	66.8127	1679.05
3.21528	0.12513	7.40398	79.7785	821.167	21.177	66.8133	1679.05
3.22222	0.125132	7.40361	79.7793	821.154	21.1769	66.8138	1679.06
3.22917	0.125134	7.40324	79.7801	821.142	21.1768	66.8144	1679.06
3.23611	0.125136	7.40288	79.7809	821.129	21.1767	66.815	1679.06
3.24306	0.125139	7.40252	79.7817	821.117	21.1766	66.8155	1679.06
3.25	0.125141	7.40216	79.7825	821.105	21.1765	66.8161	1679.07
3.25694	0.125143	7.40181	79.7832	821.093	21.1763	66.8166	1679.07
3.26389	0.125145	7.40147	79.784	821.081	21.1762	66.8171	1679.07
3.27083	0.125147	7.40113	79.7847	821.07	21.1761	66.8176	1679.07
3.27778	0.125149	7.40079	79.7854	821.059	21.176	66.8182	1679.08
3.28472	0.125151	7.40046	79.7861	821.047	21.1759	66.8187	1679.08
3.29167	0.125153	7.40014	79.7868	821.036	21.1758	66.8192	1679.08
3.29861	0.125155	7.39981	79.7875	821.025	21.1757	66.8197	1679.08
3.30556	0.125157	7.3995	79.7882	821.015	21.1756	66.8201	1679.08
3.3125	0.125159	7.39918	79.7889	821.004	21.1755	66.8206	1679.09
3.31944	0.125161	7.39887	79.7896	820.994	21.1754	66.8211	1679.09
3.32639	0.125163	7.39857	79.7903	820.984	21.1753	66.8216	1679.09
3.33333	0.125165	7.39827	79.7909	820.973	21.1753	66.822	1679.09
3.34028	0.125167	7.39797	79.7916	820.963	21.1752	66.8225	1679.09
3.34722	0.125169	7.39768	79.7922	820.954	21.1751	66.823	1679.1
3.35417	0.125171	7.39739	79.7929	820.944	21.175	66.8234	1679.1
3.36111	0.125173	7.39711	79.7935	820.934	21.1749	66.8238	1679.1
3.36806	0.125174	7.39683	79.7941	820.925	21.1748	66.8243	1679.1
3.375	0.125176	7.39655	79.7947	820.916	21.1747	66.8247	1679.1
3.38194	0.125178	7.39628	79.7953	820.907	21.1746	66.8251	1679.11
3.38889	0.12518	7.39601	79.7959	820.898	21.1746	66.8255	1679.11
3.39583	0.125181	7.39574	79.7965	820.889	21.1745	66.826	1679.11
3.40278	0.125183	7.39548	79.7971	820.88	21.1744	66.8264	1679.11
3.40972	0.125185	7.39522	79.7977	820.872	21.1743	66.8268	1679.11
3.41667	0.125186	7.39496	79.7982	820.863	21.1742	66.8272	1679.12
3.42361	0.125188	7.39471	79.7988	820.855	21.1742	66.8276	1679.12
3.43056	0.125189	7.39446	79.7994	820.847	21.1741	66.8279	1679.12
3.4375	0.125191	7.39422	79.7999	820.839	21.174	66.8283	1679.12
3.44444	0.125193	7.39398	79.8005	820.831	21.1739	66.8287	1679.12
3.45139	0.125194	7.39374	79.801	820.823	21.1738	66.8291	1679.12
3.45833	0.125196	7.3935	79.8015	820.815	21.1738	66.8294	1679.13
3.46528	0.125197	7.39327	79.8021	820.807	21.1737	66.8298	1679.13
3.47222	0.125199	7.39304	79.8026	820.8	21.1736	66.8302	1679.13
3.47917	0.1252	7.39282	79.8031	820.792	21.1736	66.8305	1679.13
3.48611	0.125202	7.39259	79.8036	820.785	21.1735	66.8309	1679.13
3.49306	0.125203	7.39237	79.8041	820.778	21.1734	66.8312	1679.13
3.5	0.125204	7.39216	79.8046	820.771	21.1734	66.8316	1679.14
3.50694	0.125206	7.39194	79.8051	820.764	21.1733	66.8319	1679.14
3.51389	0.125207	7.39173	79.8056	820.757	21.1732	66.8322	1679.14
3.52083	0.125208	7.39152	79.806	820.75	21.1732	66.8326	1679.14
3.52778	0.12521	7.39132	79.8065	820.744	21.1731	66.8329	1679.14
3.53472	0.125211	7.39112	79.807	820.737	21.173	66.8332	1679.14
3.54167	0.125212	7.39092	79.8074	820.731	21.173	66.8335	1679.15
3.54861	0.125214	7.39072	79.8079	820.724	21.1729	66.8338	1679.15
3.55556	0.125215	7.39053	79.8083	820.718	21.1728	66.8341	1679.15
3.5625	0.125216	7.39033	79.8088	820.712	21.1728	66.8344	1679.15
3.56944	0.125218	7.39015	79.8092	820.706	21.1727	66.8347	1679.15
3.57639	0.125219	7.38996	79.8097	820.7	21.1727	66.835	1679.15
3.58333	0.12522	7.38977	79.8101	820.694	21.1726	66.8353	1679.15
3.59028	0.125221	7.38959	79.8105	820.688	21.1726	66.8356	1679.16
3.59722	0.125222	7.38941	79.8109	820.682	21.1725	66.8359	1679.16
3.60417	0.125224	7.38924	79.8114	820.676	21.1724	66.8362	1679.16
3.61111	0.125225	7.38906	79.8118	820.671	21.1724	66.8365	1679.16
3.61806	0.125226	7.38889	79.8122	820.665	21.1723	66.8367	1679.16
3.625	0.125227	7.38872	79.8126	820.66	21.1723	66.837	1679.16
3.63194	0.125228	7.38855	79.813	820.655	21.1722	66.8373	1679.16
3.63889	0.125229	7.38839	79.8134	820.649	21.1722	66.8375	1679.16
3.64583	0.12523	7.38823	79.8138	820.644	21.1721	66.8378	1679.17
3.65278	0.125231	7.38806	79.8141	820.639	21.1721	66.8381	1679.17
3.65972	0.125233	7.38791	79.8145	820.634	21.172	66.8383	1679.17
3.66667	0.125234	7.38775	79.8149	820.629	21.172	66.8386	1679.17
3.67361	0.125235	7.3876	79.8153	820.624	21.1719	66.8388	1679.17
3.68056	0.125236	7.38744	79.8156	820.62	21.1719	66.8391	1679.17
3.6875	0.125237	7.38729	79.816	820.615	21.1718	66.8393	1679.17
3.69444	0.125238	7.38714	79.8164	820.61	21.1718	66.8396	1679.17
3.70139	0.125239	7.387	79.8167	820.606	21.1717	66.8398	1679.18
3.70833	0.12524	7.38685	79.8171	820.601	21.1717	66.84	1679.18
3.71528	0.125241	7.38671	79.8174	820.597	21.1716	66.8403	1679.18
3.72222	0.125242	7.38657	79.8177	820.592	21.1716	66.8405	1679.18
3.72917	0.125243	7.38643	79.8181	820.588	21.1716	66.8407	1679.18
3.73611	0.125244	7.3863	79.8184	820.584	21.1715	66.8409	1679.18
3.74306	0.125244	7.38616	79.8187	820.58	21.1715	66.8411	1679.18
3.75	0.125245	7.38603	79.8191	820.576	21.1714	66.8414	1679.18
3.75694	0.125246	7.3859	79.8194	820.572	21.1714	66.8416	1679.18
3.76389	0.125247	7.38577	79.8197	820.568	21.1713	66.8418	1679.19
3.77083	0.125248	7.38564	79.82	820.564	21.1713	66.842	1679.19
3.77778	0.125249	7.38552	79.8203	820.56	21.1713	66.8422	1679.19
3.78472	0.12525	7.38539	79.8207	820.556	21.1712	66.8424	1679.19
3.79167	0.125251	7.38527	79.821	820.552	21.1712	66.8426	1679.19
3.79861	0.125252	7.38515	79.8213	820.549	21.1711	66.8428	1679.19
3.80556	0.125252	7.38503	79.8216	820.545	21.1711	66.843	1679.19
3.8125	0.125253	7.38491	79.8219	820.542	21.1711	66.8432	1679.19
3.81944	0.125254	7.38479	79.8222	820.538	21.171	66.8434	1679.19
3.82639	0.125255	7.38468	79.8224	820.535	21.171	66.8436	1679.2
3.83333	0.125256	7.38457	79.8227	820.531	21.171	66.8438	1679.2
3.84028	0.125256	7.38446	79.823	820.528	21.1709	66.844	1679.2
3.84722	0.125257	7.38435	79.8233	820.525	21.1709	66.8441	1679.2
3.85417	0.125258	7.38424	79.8236	820.521	21.1709	66.8443	1679.2
3.86111	0.125259	7.38413	79.8238	820.518	21.1708	66.8445	1679.2
3.86806	0.12526	7.38402	79.8241	820.515	21.1708	66.8447	1679.2
3.875	0.12526	7.38392	79.8244	820.512	21.1708	66.8448	1679.2
3.88194	0.125261	7.38382	79.8247	820.509	21.1707	66.845	1679.2
3.88889	0.125262	7.38372	79.8249	820.506	21.1707	66.8452	1679.2
3.89583	0.125262	7.38362	79.8252	820.503	21.1707	66.8454	1679.2
3.90278	0.125263	7.38352	79.8254	820.5	21.1706	66.8455	1679.21
3.90972	0.125264	7.38342	79.8257	820.497	21.1706	66.8457	1679.21
3.91667	0.125265	7.38332	79.8259	820.494	21.1706	66.8458	1679.21
3.92361	0.125265	7.38323	79.8262	820.492	21.1705	66.846	1679.21
3.93056	0.125266	7.38314	79.8264	820.489	21.1705	66.8462	1679.21
3.9375	0.125267	7.38304	79.8267	820.486	21.1705	66.8463	1679.21
3.94444	0.125267	7.38295	79.8269	820.484	21.1704	66.8465	1679.21
3.95139	0.125268	7.38286	79.8272	820.481	21.1704	66.8466	1679.21
3.95833	0.125269	7.38277	79.8274	820.478	21.1704	66.8468	1679.21
3.96528	0.125269	7.38269	79.8276	820.476	21.1704	66.8469	1679.21
3.97222	0.12527	7.3826	79.8279	820.473	21.1703	66.8471	1679.21
3.97917	0.125271	7.38251	79.8281	820.471	21.1703	66.8472	1679.21
3.98611	0.125271	7.38243	79.8283	820.469	21.1703	66.8474	1679.22
3.99306	0.125272	7.38235	79.8285	820.466	21.1702	66.8475	1679.22
4	0.125272	7.38227	79.8288	820.464	21.1702	66.8476	1679.22
